#isoforms=['exon:trans3:3_exon:trans3:2_exon:trans3:1','exon:trans2:3_exon:trans2:2_exon:trans2:1']	exon_lens=('exon:trans3:3',300),('exon:trans3:2',500),('exon:trans3:1',250),('exon:trans2:3',300),('exon:trans2:2',600),('exon:trans2:1',250)	iters=5000	burn_in=500	lag=10	percent_accept=75.37	proposal_type=drift	counts=(0,0):11,(0,1):1683,(1,0):171,(1,1):1005	assigned_counts=0:282,1:2577	chrom=test1	strand=-	mRNA_starts=3000,3000	mRNA_ends=5299,5299
sampled_psi	log_score
0.1130,0.8870	-20789.94
0.1077,0.8923	-20772.90
0.1077,0.8923	-20779.24
0.0998,0.9002	-20758.09
0.0969,0.9031	-20731.78
0.1050,0.8950	-20751.47
0.1125,0.8875	-20763.04
0.1102,0.8898	-20766.81
0.1115,0.8885	-20783.60
0.0978,0.9022	-20731.73
0.0798,0.9202	-20733.08
0.0955,0.9045	-20747.64
0.1157,0.8843	-20804.53
0.1207,0.8793	-20843.03
0.1094,0.8906	-20775.09
0.1009,0.8991	-20773.30
0.1037,0.8963	-20781.60
0.1107,0.8893	-20775.21
0.0992,0.9008	-20744.94
0.1002,0.8998	-20738.30
0.1026,0.8974	-20744.88
0.1058,0.8942	-20764.34
0.1172,0.8828	-20796.62
0.1052,0.8948	-20783.60
0.0960,0.9040	-20734.10
0.1012,0.8988	-20803.84
0.1135,0.8865	-20790.00
0.1079,0.8921	-20794.03
0.1021,0.8979	-20760.09
0.1019,0.8981	-20779.68
0.0960,0.9040	-20763.24
0.1073,0.8927	-20775.00
0.1082,0.8918	-20840.41
0.1147,0.8853	-20802.40
0.1051,0.8949	-20760.04
0.0969,0.9031	-20751.86
0.0934,0.9066	-20761.75
0.1003,0.8997	-20727.33
0.1065,0.8935	-20770.75
0.1175,0.8825	-20845.06
0.1227,0.8773	-20792.01
0.0994,0.9006	-20747.13
0.1068,0.8932	-20772.88
0.1070,0.8930	-20762.27
0.1043,0.8957	-20787.99
0.1142,0.8858	-20785.98
0.0961,0.9039	-20781.15
0.0966,0.9034	-20772.05
0.1018,0.8982	-20775.34
0.1138,0.8862	-20808.50
0.1062,0.8938	-20817.60
0.1093,0.8907	-20758.30
0.0991,0.9009	-20762.60
0.1033,0.8967	-20747.07
0.1177,0.8823	-20804.76
0.1224,0.8776	-20803.72
0.1089,0.8911	-20787.67
0.1024,0.8976	-20796.97
0.1030,0.8970	-20738.41
0.1091,0.8909	-20775.07
0.0971,0.9029	-20749.60
0.1244,0.8756	-20794.54
0.0968,0.9032	-20742.96
0.1108,0.8892	-20785.63
0.1113,0.8887	-20804.36
0.1075,0.8925	-20760.19
0.1135,0.8865	-20798.21
0.1133,0.8867	-20810.55
0.0997,0.9003	-20749.31
0.1163,0.8837	-20780.25
0.1125,0.8875	-20802.29
0.1065,0.8935	-20760.11
0.1022,0.8978	-20751.39
0.1046,0.8954	-20755.74
0.1030,0.8970	-20751.39
0.1071,0.8929	-20753.80
0.1233,0.8767	-20811.84
0.0967,0.9033	-20747.44
0.1163,0.8837	-20800.53
0.1079,0.8921	-20770.79
0.0971,0.9029	-20725.08
0.0973,0.9027	-20722.84
0.1018,0.8982	-20744.87
0.1018,0.8982	-20771.00
0.1152,0.8848	-20810.60
0.1031,0.8969	-20781.68
0.1071,0.8929	-20781.36
0.1070,0.8930	-20804.71
0.1121,0.8879	-20777.45
0.0950,0.9050	-20797.32
0.1068,0.8932	-20751.63
0.0866,0.9134	-20755.42
0.1029,0.8971	-20773.04
0.1147,0.8853	-20808.53
0.1132,0.8868	-20800.25
0.1018,0.8982	-20744.87
0.1022,0.8978	-20788.32
0.0988,0.9012	-20778.12
0.1177,0.8823	-20786.64
0.1147,0.8853	-20802.40
0.1128,0.8872	-20783.73
0.1027,0.8973	-20734.05
0.0923,0.9077	-20759.85
0.1158,0.8842	-20822.83
0.1106,0.8894	-20773.11
0.1274,0.8726	-20826.50
0.1041,0.8959	-20760.03
0.1026,0.8974	-20768.74
0.0998,0.9002	-20780.10
0.1067,0.8933	-20755.87
0.1077,0.8923	-20802.50
0.1143,0.8857	-20798.27
0.1027,0.8973	-20753.56
0.0997,0.9003	-20742.71
0.1099,0.8901	-20775.13
0.1081,0.8919	-20781.35
0.1116,0.8884	-20814.73
0.1071,0.8929	-20791.97
0.0940,0.9060	-20743.43
0.1002,0.8998	-20769.03
0.1047,0.8953	-20802.96
0.1012,0.8988	-20812.57
0.1170,0.8830	-20788.49
0.1153,0.8847	-20798.38
0.1037,0.8963	-20798.86
0.1019,0.8981	-20779.69
0.1094,0.8906	-20800.26
0.1108,0.8892	-20764.81
0.1153,0.8847	-20824.87
0.1169,0.8831	-20752.09
0.1074,0.8926	-20747.47
0.1001,0.8999	-20762.46
0.1055,0.8945	-20804.95
0.1115,0.8885	-20775.30
0.1067,0.8933	-20770.75
0.1213,0.8787	-20821.28
0.1054,0.8946	-20747.22
0.1039,0.8961	-20747.10
0.1069,0.8931	-20777.12
0.1053,0.8947	-20747.21
0.1120,0.8880	-20794.00
0.1115,0.8885	-20825.11
0.1133,0.8867	-20771.45
0.1041,0.8959	-20785.86
0.1053,0.8947	-20745.08
0.1042,0.8958	-20788.00
0.1133,0.8867	-20837.30
0.1098,0.8902	-20808.61
0.1090,0.8910	-20762.46
0.0968,0.9032	-20812.20
0.1044,0.8956	-20775.07
0.1020,0.8980	-20788.37
0.1084,0.8916	-20794.00
0.1069,0.8931	-20772.88
0.0967,0.9033	-20765.30
0.1188,0.8812	-20804.94
0.1000,0.9000	-20766.87
0.1084,0.8916	-20764.50
0.1041,0.8959	-20792.31
0.1087,0.8913	-20770.84
0.0900,0.9100	-20721.46
0.1095,0.8905	-20800.25
0.1073,0.8927	-20768.65
0.1120,0.8880	-20794.00
0.0942,0.9058	-20734.35
0.1095,0.8905	-20800.25
0.0940,0.9060	-20738.91
0.1060,0.8940	-20760.08
0.1128,0.8872	-20816.73
0.1093,0.8907	-20772.99
0.1054,0.8946	-20785.72
0.1024,0.8976	-20742.71
0.1003,0.8997	-20771.21
0.1144,0.8856	-20745.07
0.1031,0.8969	-20803.31
0.1140,0.8860	-20787.99
0.1088,0.8912	-20798.19
0.1148,0.8852	-20816.71
0.0960,0.9040	-20769.97
0.1100,0.8900	-20773.05
0.1093,0.8907	-20754.11
0.1154,0.8846	-20802.47
0.1160,0.8840	-20808.62
0.1181,0.8819	-20782.70
0.1063,0.8937	-20777.13
0.1051,0.8949	-20762.19
0.0972,0.9028	-20718.39
0.1122,0.8878	-20765.04
0.1037,0.8963	-20770.82
0.1140,0.8860	-20796.20
0.1048,0.8952	-20777.20
0.0964,0.9036	-20736.29
0.1087,0.8913	-20791.88
0.1005,0.8995	-20733.92
0.1036,0.8964	-20753.56
0.1029,0.8971	-20747.06
0.0907,0.9093	-20742.05
0.0982,0.9018	-20751.67
0.1073,0.8927	-20751.70
0.1070,0.8930	-20764.39
0.0984,0.9016	-20760.50
0.1134,0.8866	-20816.72
0.0934,0.9066	-20773.13
0.0984,0.9016	-20764.94
0.1027,0.8973	-20712.38
0.1125,0.8875	-20771.31
0.0982,0.9018	-20733.93
0.1061,0.8939	-20779.27
0.1149,0.8851	-20790.17
0.1076,0.8924	-20762.31
0.1069,0.8931	-20749.53
0.1034,0.8966	-20773.00
0.0934,0.9066	-20784.47
0.1137,0.8863	-20748.96
0.1100,0.8900	-20798.14
0.1070,0.8930	-20766.51
0.1036,0.8964	-20760.03
0.1167,0.8833	-20824.87
0.1013,0.8987	-20768.87
0.0984,0.9016	-20753.86
0.0971,0.9029	-20785.27
0.1004,0.8996	-20744.88
0.1125,0.8875	-20814.68
0.1193,0.8807	-20827.01
0.1202,0.8798	-20837.05
0.1039,0.8961	-20757.88
0.1086,0.8914	-20791.89
0.1045,0.8955	-20772.92
0.1131,0.8869	-20837.33
0.1095,0.8905	-20821.21
0.1098,0.8902	-20791.87
0.1066,0.8934	-20787.76
0.1062,0.8938	-20798.44
0.1210,0.8790	-20823.22
0.1038,0.8962	-20753.57
0.0981,0.9019	-20784.97
0.1140,0.8860	-20804.40
0.1000,0.9000	-20769.06
0.1069,0.8931	-20800.47
0.0967,0.9033	-20713.92
0.1071,0.8929	-20781.36
0.1092,0.8908	-20791.87
0.1141,0.8859	-20804.41
0.1205,0.8795	-20811.22
0.1047,0.8953	-20785.79
0.1083,0.8917	-20751.84
0.1004,0.8996	-20775.57
0.1145,0.8855	-20806.48
0.1126,0.8874	-20818.81
0.0940,0.9060	-20725.31
0.0944,0.9056	-20750.15
0.1116,0.8884	-20800.21
0.0987,0.9013	-20742.76
0.1086,0.8914	-20777.15
0.1048,0.8952	-20777.20
0.1063,0.8937	-20760.10
0.0961,0.9039	-20781.15
0.1093,0.8907	-20796.06
0.1100,0.8900	-20825.32
0.1028,0.8972	-20757.89
0.0944,0.9056	-20770.50
0.1044,0.8956	-20787.97
0.1029,0.8971	-20777.37
0.1308,0.8692	-20806.72
0.1131,0.8869	-20765.24
0.1018,0.8982	-20762.29
0.1035,0.8965	-20783.78
0.1031,0.8969	-20770.86
0.0960,0.9040	-20754.27
0.1172,0.8828	-20832.96
0.1230,0.8770	-20831.40
0.1152,0.8848	-20798.37
0.1125,0.8875	-20787.83
0.1028,0.8972	-20747.06
0.1116,0.8884	-20767.01
0.1113,0.8887	-20789.82
0.1136,0.8864	-20833.14
0.0924,0.9076	-20739.27
0.1121,0.8879	-20802.28
0.1012,0.8988	-20742.68
0.1021,0.8979	-20734.00
0.1055,0.8945	-20781.43
0.1029,0.8971	-20740.56
0.0970,0.9030	-20769.69
0.1166,0.8834	-20786.40
0.0978,0.9022	-20767.27
0.0984,0.9016	-20787.08
0.1172,0.8828	-20828.93
0.1062,0.8938	-20766.48
0.1078,0.8922	-20743.31
0.1068,0.8932	-20775.00
0.1010,0.8990	-20764.54
0.1072,0.8928	-20764.40
0.1101,0.8899	-20796.05
0.1021,0.8979	-20790.52
0.1095,0.8905	-20817.02
0.1129,0.8871	-20773.44
0.1078,0.8922	-20775.01
0.1058,0.8942	-20779.28
0.1198,0.8802	-20803.13
0.1116,0.8884	-20758.71
0.1124,0.8876	-20765.09
0.1057,0.8943	-20768.61
0.1052,0.8948	-20734.36
0.1067,0.8933	-20766.50
0.1001,0.8999	-20755.87
0.1111,0.8889	-20800.21
0.1182,0.8818	-20820.92
0.0928,0.9072	-20784.77
0.1120,0.8880	-20794.00
0.1093,0.8907	-20789.77
0.1192,0.8808	-20799.00
0.1143,0.8857	-20788.04
0.1064,0.8936	-20806.93
0.0945,0.9055	-20711.69
0.1078,0.8922	-20785.58
0.1184,0.8816	-20810.90
0.1120,0.8880	-20771.23
0.1056,0.8944	-20747.25
0.1045,0.8955	-20785.81
0.1006,0.8994	-20784.30
0.1046,0.8954	-20736.41
0.1019,0.8981	-20764.46
0.1087,0.8913	-20741.39
0.1147,0.8853	-20814.66
0.0991,0.9009	-20755.99
0.1003,0.8997	-20716.36
0.0992,0.9008	-20722.88
0.0964,0.9036	-20740.77
0.0963,0.9037	-20763.16
0.1124,0.8876	-20808.49
0.1065,0.8935	-20757.98
0.1057,0.8943	-20796.37
0.1038,0.8962	-20790.21
0.0894,0.9106	-20737.84
0.1033,0.8967	-20788.14
0.1145,0.8855	-20786.02
0.1164,0.8836	-20816.76
0.1202,0.8798	-20805.21
0.1115,0.8885	-20740.01
0.0937,0.9063	-20738.97
0.0992,0.9008	-20742.73
0.1122,0.8878	-20800.22
0.0957,0.9043	-20749.86
0.1148,0.8852	-20779.94
0.1220,0.8780	-20760.21
0.1006,0.8994	-20744.87
0.1131,0.8869	-20847.62
0.1041,0.8959	-20764.34
0.0980,0.9020	-20773.90
0.1137,0.8863	-20785.91
0.1078,0.8922	-20785.58
0.0978,0.9022	-20756.17
0.0960,0.9040	-20752.04
0.1058,0.8942	-20777.14
0.0983,0.9017	-20804.86
0.1113,0.8887	-20760.73
0.1044,0.8956	-20738.54
0.1059,0.8941	-20766.48
0.1016,0.8984	-20744.86
0.1136,0.8864	-20787.95
0.1002,0.8998	-20727.33
0.1038,0.8962	-20755.72
0.1099,0.8901	-20789.77
0.1096,0.8904	-20800.25
0.1035,0.8965	-20749.24
0.1137,0.8863	-20783.86
0.1111,0.8889	-20760.69
0.1126,0.8874	-20767.21
0.1171,0.8829	-20812.77
0.1013,0.8987	-20744.86
0.1047,0.8953	-20757.89
0.1059,0.8941	-20781.41
0.1019,0.8981	-20777.51
0.0992,0.9008	-20733.91
0.1233,0.8767	-20802.00
0.1079,0.8921	-20785.58
0.1021,0.8979	-20753.57
0.1085,0.8915	-20810.84
0.1048,0.8952	-20783.63
0.1155,0.8845	-20773.97
0.1132,0.8868	-20761.15
0.1182,0.8818	-20768.67
0.1008,0.8992	-20744.87
0.1043,0.8957	-20742.83
0.0913,0.9087	-20746.46
0.1057,0.8943	-20753.66
0.1216,0.8784	-20787.70
0.1010,0.8990	-20733.93
0.1128,0.8872	-20804.36
0.1048,0.8952	-20740.74
0.0915,0.9085	-20776.21
0.1114,0.8886	-20783.60
0.1092,0.8908	-20793.97
0.1047,0.8953	-20762.18
0.1024,0.8976	-20744.88
0.1243,0.8757	-20763.25
0.1093,0.8907	-20806.56
0.1079,0.8921	-20800.36
0.1226,0.8774	-20795.90
0.1030,0.8970	-20762.21
0.1048,0.8952	-20777.20
0.1160,0.8840	-20792.36
0.1122,0.8878	-20818.84
0.1111,0.8889	-20754.46
0.1155,0.8845	-20814.69
0.1043,0.8957	-20772.93
0.1084,0.8916	-20827.73
0.0975,0.9025	-20742.87
0.1089,0.8911	-20762.45
0.1093,0.8907	-20783.48
0.1073,0.8927	-20796.19
0.1151,0.8849	-20804.48
0.1155,0.8845	-20786.18
0.0988,0.9012	-20729.49
0.1011,0.8989	-20753.60
0.1038,0.8962	-20744.94
0.1022,0.8978	-20768.78
0.1045,0.8955	-20777.22
0.1280,0.8720	-20817.08
0.0982,0.9018	-20776.07
0.1038,0.8962	-20751.41
0.0892,0.9108	-20675.18
0.1044,0.8956	-20764.33
0.1200,0.8800	-20781.25
0.1039,0.8961	-20794.50
0.0988,0.9012	-20758.23
0.0993,0.9007	-20729.50
0.1131,0.8869	-20800.25
0.1010,0.8990	-20771.10
0.1035,0.8965	-20777.30
0.1024,0.8976	-20768.76
0.1153,0.8847	-20790.23
0.1056,0.8944	-20747.24
0.1157,0.8843	-20814.70
0.0958,0.9042	-20765.53
0.0990,0.9010	-20778.09
0.1179,0.8821	-20810.83
0.1228,0.8772	-20833.33
0.1013,0.8987	-20764.51
0.1184,0.8816	-20796.84
0.0948,0.9052	-20693.63
0.1050,0.8950	-20745.04
0.1120,0.8880	-20754.67
0.1049,0.8951	-20742.89
0.0963,0.9037	-20772.12
0.1113,0.8887	-20769.04
0.1163,0.8837	-20776.18
0.1077,0.8923	-20762.32
0.1094,0.8906	-20770.90
0.1076,0.8924	-20751.74
0.0960,0.9040	-20774.47
0.1094,0.8906	-20796.06
0.1097,0.8903	-20796.05
0.1065,0.8935	-20753.73
0.1060,0.8940	-20785.67
0.0944,0.9056	-20797.63
0.0952,0.9048	-20767.97
0.1126,0.8874	-20765.14
0.1014,0.8986	-20757.95
0.1048,0.8952	-20802.95
0.1226,0.8774	-20841.18
0.0874,0.9126	-20719.84
0.1186,0.8814	-20782.85
0.0982,0.9018	-20749.46
0.1104,0.8896	-20779.35
0.1193,0.8807	-20805.02
0.1159,0.8841	-20786.25
0.0914,0.9086	-20732.65
0.1019,0.8981	-20768.80
0.1167,0.8833	-20792.50
0.1056,0.8944	-20789.98
0.1022,0.8978	-20779.64
0.1203,0.8797	-20801.25
0.0910,0.9090	-20721.24
0.1058,0.8942	-20775.01
0.1087,0.8913	-20785.57
0.1068,0.8932	-20772.87
0.1120,0.8880	-20791.93
0.1131,0.8869	-20767.30
0.0967,0.9033	-20765.31
0.1018,0.8982	-20768.81
0.1000,0.9000	-20747.09
0.1064,0.8936	-20775.00
0.1031,0.8969	-20773.03
0.0960,0.9040	-20720.64
0.1124,0.8876	-20825.02
0.1052,0.8948	-20745.06
0.1035,0.8965	-20757.88
0.1091,0.8909	-20789.77
0.1075,0.8925	-20777.12
0.1097,0.8903	-20793.96
0.1289,0.8711	-20805.91
0.1068,0.8932	-20760.13
0.0910,0.9090	-20776.46
0.1107,0.8893	-20773.13
0.1083,0.8917	-20777.14
0.1112,0.8888	-20791.89
0.1086,0.8914	-20775.04
0.1103,0.8897	-20756.37
0.1121,0.8879	-20779.52
0.1087,0.8913	-20775.05
0.0962,0.9038	-20754.23
0.1138,0.8862	-20775.66
0.1131,0.8869	-20824.96
0.1121,0.8879	-20762.96
0.1087,0.8913	-20735.07
0.1138,0.8862	-20775.66
0.1165,0.8835	-20822.84
0.1141,0.8859	-20777.77
0.1047,0.8953	-20777.20
0.1009,0.8991	-20757.99
0.1058,0.8942	-20768.61
0.1066,0.8934	-20743.11
0.1076,0.8924	-20770.78
0.1004,0.8996	-20740.49
0.1087,0.8913	-20785.57
0.1132,0.8868	-20767.32
0.0989,0.9011	-20738.33
0.1011,0.8989	-20731.75
0.1141,0.8859	-20794.16
0.1048,0.8952	-20779.34
0.0994,0.9006	-20784.59
0.1166,0.8834	-20784.38
0.1056,0.8944	-20787.84
0.0954,0.9046	-20770.16
0.0986,0.9014	-20758.26
0.0985,0.9015	-20769.35
0.1024,0.8976	-20757.90
0.1159,0.8841	-20794.39
0.1164,0.8836	-20802.58
0.1003,0.8997	-20718.56
0.1042,0.8958	-20751.43
0.1030,0.8970	-20786.02
0.1024,0.8976	-20794.80
0.1092,0.8908	-20812.87
0.1104,0.8896	-20812.74
0.1135,0.8865	-20787.93
0.1159,0.8841	-20802.51
0.1011,0.8989	-20777.64
0.0942,0.9058	-20786.41
0.1105,0.8895	-20768.93
0.1091,0.8909	-20785.57
0.1073,0.8927	-20796.19
0.1103,0.8897	-20825.27
0.1019,0.8981	-20762.27
0.1043,0.8957	-20762.18
0.1056,0.8944	-20753.66
0.1169,0.8831	-20798.59
0.1136,0.8864	-20785.89
0.0960,0.9040	-20799.11
0.1103,0.8897	-20768.90
0.1021,0.8979	-20799.22
0.0989,0.9011	-20751.59
0.1147,0.8853	-20775.84
0.1007,0.8993	-20751.44
0.1205,0.8795	-20831.10
0.1041,0.8959	-20772.95
0.1137,0.8863	-20777.70
0.1048,0.8952	-20764.33
0.1100,0.8900	-20785.59
0.1074,0.8926	-20758.06
0.0977,0.9023	-20765.08
0.1059,0.8941	-20757.94
0.1085,0.8915	-20789.78
0.1157,0.8843	-20798.42
0.1090,0.8910	-20823.38
0.0971,0.9029	-20756.29
0.1016,0.8984	-20751.40
0.1001,0.8999	-20749.28
0.1050,0.8950	-20753.61
0.1101,0.8899	-20825.30
0.1011,0.8989	-20736.13
0.1126,0.8874	-20781.65
0.1125,0.8875	-20796.10
0.1090,0.8910	-20810.78
0.0948,0.9052	-20756.81
0.1037,0.8963	-20772.97
0.1226,0.8774	-20803.78
0.1133,0.8867	-20777.63
0.1144,0.8856	-20777.82
0.0964,0.9036	-20698.25
0.1014,0.8986	-20795.04
0.0986,0.9014	-20758.26
0.1064,0.8936	-20792.02
0.0995,0.9005	-20714.08
0.1130,0.8870	-20767.28
0.1033,0.8967	-20749.23
0.1026,0.8974	-20760.06
0.1046,0.8954	-20779.36
0.1183,0.8817	-20782.77
0.1065,0.8935	-20779.25
0.0917,0.9083	-20748.63
0.1022,0.8978	-20753.56
0.1187,0.8813	-20782.86
0.1190,0.8810	-20804.98
0.1074,0.8926	-20734.77
0.1103,0.8897	-20781.43
0.1079,0.8921	-20791.92
0.1045,0.8955	-20798.70
0.1187,0.8813	-20810.94
0.1158,0.8842	-20788.27
0.0912,0.9088	-20753.39
0.0950,0.9050	-20752.25
0.1028,0.8972	-20794.71
0.0933,0.9067	-20782.25
0.1050,0.8950	-20757.90
0.1069,0.8931	-20775.00
0.1139,0.8861	-20738.74
0.0936,0.9064	-20716.28
0.1061,0.8939	-20770.74
0.1087,0.8913	-20751.91
0.1085,0.8915	-20777.15
0.0978,0.9022	-20740.62
0.1197,0.8803	-20807.09
0.1002,0.8998	-20762.45
0.1025,0.8975	-20775.26
0.1192,0.8808	-20809.00
0.1120,0.8880	-20791.93
0.1033,0.8967	-20742.75
0.1231,0.8769	-20833.37
0.0962,0.9038	-20763.20
0.0949,0.9051	-20750.03
0.1044,0.8956	-20783.68
0.1084,0.8916	-20766.61
0.1093,0.8907	-20783.48
0.1123,0.8877	-20763.01
0.1112,0.8888	-20796.05
0.0971,0.9029	-20729.54
0.1078,0.8922	-20779.24
0.1030,0.8970	-20753.56
0.1129,0.8871	-20777.56
0.1125,0.8875	-20769.24
0.1091,0.8909	-20760.37
0.0996,0.9004	-20742.71
0.1120,0.8880	-20765.02
0.0965,0.9035	-20747.46
0.1027,0.8973	-20766.56
0.1153,0.8847	-20778.00
0.1003,0.8997	-20758.04
0.1019,0.8981	-20753.57
0.1166,0.8834	-20824.87
0.0920,0.9080	-20737.06
0.1031,0.8969	-20786.00
0.1170,0.8830	-20778.40
0.1072,0.8928	-20768.64
0.1066,0.8934	-20796.26
0.1061,0.8939	-20757.95
0.0954,0.9046	-20756.66
0.1097,0.8903	-20773.02
0.1051,0.8949	-20757.90
0.1292,0.8708	-20827.03
0.0958,0.9042	-20740.86
0.1151,0.8849	-20782.04
0.0952,0.9048	-20747.70
0.1028,0.8972	-20788.22
0.1142,0.8858	-20806.46
0.1093,0.8907	-20770.89
0.1139,0.8861	-20757.22
0.1014,0.8986	-20757.96
0.1037,0.8963	-20775.13
0.1042,0.8958	-20751.42
0.1110,0.8890	-20814.77
0.1037,0.8963	-20716.89
0.1135,0.8865	-20810.55
0.0922,0.9078	-20725.60
0.0983,0.9017	-20762.75
0.1065,0.8935	-20783.51
0.1011,0.8989	-20768.90
0.0995,0.9005	-20733.91
0.1004,0.8996	-20764.62
0.0949,0.9051	-20763.56
0.0963,0.9037	-20756.44
0.1128,0.8872	-20814.67
0.1129,0.8871	-20769.32
0.1067,0.8933	-20760.13
0.1125,0.8875	-20779.57
0.1089,0.8911	-20777.16
0.1153,0.8847	-20806.53
0.1286,0.8714	-20780.92
0.1147,0.8853	-20779.91
0.1069,0.8931	-20777.12
0.1090,0.8910	-20747.75
0.1046,0.8954	-20772.91
0.1089,0.8911	-20800.29
0.1123,0.8877	-20754.73
0.1082,0.8918	-20766.59
0.1019,0.8981	-20751.39
0.1047,0.8953	-20783.65
0.1161,0.8839	-20820.81
0.1099,0.8901	-20798.14
0.1080,0.8920	-20770.80
0.1092,0.8908	-20787.67
0.1000,0.9000	-20755.88
0.0944,0.9056	-20745.61
0.1069,0.8931	-20775.00
0.1090,0.8910	-20777.17
0.1116,0.8884	-20767.01
0.1116,0.8884	-20793.98
0.1164,0.8836	-20802.57
0.0872,0.9128	-20703.45
0.0993,0.9007	-20786.83
0.1018,0.8982	-20753.58
0.1026,0.8974	-20777.41
0.1078,0.8922	-20817.29
0.1155,0.8845	-20826.90
0.1004,0.8996	-20742.69
0.1008,0.8992	-20797.38
0.1042,0.8958	-20755.73
0.1106,0.8894	-20768.94
0.1008,0.8992	-20749.25
0.1042,0.8958	-20777.24
0.1144,0.8856	-20788.05
0.0934,0.9066	-20777.66
0.1093,0.8907	-20781.38
0.1124,0.8876	-20787.82
0.1103,0.8897	-20798.13
0.1033,0.8967	-20775.17
0.1086,0.8914	-20783.46
0.0984,0.9016	-20760.51
0.0985,0.9015	-20773.78
0.1113,0.8887	-20820.99
0.1132,0.8868	-20829.07
0.1021,0.8979	-20747.04
0.1155,0.8845	-20806.55
0.0970,0.9030	-20738.46
0.1036,0.8964	-20781.62
0.1003,0.8997	-20771.21
0.1055,0.8945	-20777.16
0.1062,0.8938	-20768.61
0.1086,0.8914	-20804.51
0.1037,0.8963	-20742.78
0.0964,0.9036	-20747.48
0.1131,0.8869	-20794.07
0.1087,0.8913	-20758.22
0.1037,0.8963	-20757.88
0.1067,0.8933	-20804.75
0.1056,0.8944	-20783.56
0.1092,0.8908	-20772.98
0.1085,0.8915	-20762.40
0.1057,0.8943	-20757.93
0.1074,0.8926	-20781.36
0.1086,0.8914	-20787.68
0.1156,0.8844	-20810.62
0.1039,0.8961	-20794.50
0.1238,0.8762	-20849.13
0.1088,0.8912	-20777.16
0.1014,0.8986	-20755.77
0.1146,0.8854	-20783.99
0.1100,0.8900	-20816.96
0.1011,0.8989	-20777.64
0.1060,0.8940	-20760.08
0.1086,0.8914	-20732.95
0.0962,0.9038	-20767.68
0.1136,0.8864	-20755.08
0.1066,0.8934	-20800.51
0.1115,0.8885	-20787.75
0.0991,0.9009	-20718.46
0.1145,0.8855	-20802.39
0.1123,0.8877	-20808.49
0.1018,0.8982	-20755.75
0.1098,0.8902	-20775.12
0.1014,0.8986	-20760.14
0.1021,0.8979	-20786.18
0.0988,0.9012	-20716.23
0.1051,0.8949	-20796.45
0.1026,0.8974	-20747.05
0.1190,0.8810	-20788.95
0.0958,0.9042	-20772.27
0.0944,0.9056	-20711.70
0.1034,0.8966	-20762.20
0.1092,0.8908	-20779.28
0.1154,0.8846	-20790.24
0.1071,0.8929	-20751.67
0.0884,0.9116	-20775.53
0.1049,0.8951	-20745.03
0.1002,0.8998	-20769.04
0.0964,0.9036	-20767.62
0.1024,0.8976	-20736.19
0.1149,0.8851	-20796.29
0.0931,0.9069	-20745.94
0.1140,0.8860	-20755.19
0.1030,0.8970	-20742.73
0.1166,0.8834	-20804.62
0.1093,0.8907	-20772.99
0.0961,0.9039	-20774.43
0.1080,0.8920	-20775.02
0.1013,0.8987	-20764.51
0.1041,0.8959	-20775.10
0.1095,0.8905	-20752.05
0.0979,0.9021	-20736.17
0.0992,0.9008	-20762.59
0.1075,0.8925	-20760.19
0.1056,0.8944	-20762.20
0.1152,0.8848	-20812.64
0.1065,0.8935	-20806.90
0.1041,0.8959	-20751.42
0.1152,0.8848	-20806.52
0.1034,0.8966	-20766.52
0.1009,0.8991	-20777.67
0.1018,0.8982	-20781.89
0.1133,0.8867	-20845.53
0.1052,0.8948	-20772.89
0.1115,0.8885	-20764.93
0.1181,0.8819	-20802.81
0.1017,0.8983	-20744.86
0.1097,0.8903	-20814.90
0.1163,0.8837	-20796.47
0.1048,0.8952	-20770.76
0.1055,0.8945	-20783.57
0.1069,0.8931	-20777.12
0.1060,0.8940	-20817.65
0.0987,0.9013	-20729.49
